"time (s)","v("/out" ?result "tran-tran") (V)"
0.00000,0.00000
1.786E-13,0.00000
3.571E-13,0.00000
7.143E-13,0.00000
1.429E-12,0.00000
2.857E-12,0.00000
5.714E-12,0.00000
1.143E-11,0.00000
2.286E-11,0.00000
3.607E-11,0.00000
3.643E-11,0.00000
3.714E-11,0.00000
3.857E-11,0.00000
4.143E-11,0.00000
4.714E-11,0.00000
5.857E-11,0.00000
8.143E-11,0.00000
1.121E-10,0.00000
1.429E-10,0.00000
1.43E-10,0.00000
1.432E-10,0.00000
1.436E-10,0.00000
1.443E-10,0.00000
1.457E-10,0.00000
1.48E-10,5.985E-3
1.507E-10,0.01289
1.561E-10,0.01289
1.668E-10,0.01289
1.789E-10,0.01289
1.793E-10,0.01289
1.8E-10,0.01289
1.814E-10,0.01289
1.843E-10,0.01289
1.900E-10,0.01289
2.014E-10,0.01289
2.243E-10,0.01289
2.550E-10,0.01289
2.857E-10,0.01289
2.859E-10,0.01289
2.861E-10,0.01289
2.864E-10,0.01289
2.871E-10,0.01289
2.886E-10,0.01289
2.909E-10,0.02087
2.936E-10,0.03008
2.989E-10,0.03008
3.096E-10,0.03008
3.218E-10,0.03008
3.221E-10,0.03008
3.229E-10,0.03008
3.243E-10,0.03008
3.271E-10,0.03008
3.329E-10,0.03008
3.443E-10,0.03008
3.671E-10,0.03008
3.979E-10,0.03008
4.286E-10,0.03008
4.288E-10,0.03008
4.289E-10,0.03008
4.293E-10,0.03008
4.3E-10,0.03008
4.314E-10,0.03008
4.338E-10,0.03606
4.364E-10,0.04297
4.418E-10,0.04297
4.525E-10,0.04297
4.646E-10,0.04297
4.65E-10,0.04297
4.657E-10,0.04297
4.671E-10,0.04297
4.7E-10,0.04297
4.757E-10,0.04297
4.871E-10,0.04297
5.100E-10,0.04297
5.407E-10,0.04297
5.714E-10,0.04297
5.716E-10,0.04297
5.718E-10,0.04297
5.721E-10,0.04297
5.729E-10,0.04297
5.743E-10,0.04297
5.766E-10,0.05095
5.793E-10,0.06016
5.846E-10,0.06016
5.954E-10,0.06016
6.075E-10,0.06016
6.079E-10,0.06016
6.086E-10,0.06016
6.100E-10,0.06016
6.129E-10,0.06016
6.186E-10,0.06016
6.3E-10,0.06016
6.529E-10,0.06016
6.836E-10,0.06016
7.143E-10,0.06016
7.145E-10,0.06016
7.146E-10,0.06016
7.15E-10,0.06016
7.157E-10,0.06016
7.171E-10,0.06016
7.195E-10,0.06814
7.221E-10,0.07734
7.275E-10,0.07734
7.382E-10,0.07734
7.504E-10,0.07734
7.507E-10,0.07734
7.514E-10,0.07734
7.529E-10,0.07734
7.557E-10,0.07734
7.614E-10,0.07734
7.729E-10,0.07734
7.957E-10,0.07734
8.264E-10,0.07734
8.571E-10,0.07734
8.573E-10,0.07734
8.575E-10,0.07734
8.579E-10,0.07734
8.586E-10,0.07734
8.6E-10,0.07734
8.623E-10,0.08333
8.65E-10,0.09023
8.704E-10,0.09023
8.811E-10,0.09023
8.932E-10,0.09023
8.936E-10,0.09023
8.943E-10,0.09023
8.957E-10,0.09023
8.986E-10,0.09023
9.043E-10,0.09023
9.157E-10,0.09023
9.386E-10,0.09023
9.693E-10,0.09023
1.0E-9,0.09023
1.0E-9,0.09023
1.0E-9,0.09023
1.001E-9,0.09023
1.001E-9,0.09023
1.003E-9,0.09023
1.005E-9,0.09821
1.008E-9,0.1074
1.013E-9,0.1074
1.024E-9,0.1074
1.036E-9,0.1074
1.036E-9,0.1074
1.037E-9,0.1074
1.039E-9,0.1074
1.041E-9,0.1074
1.047E-9,0.1074
1.059E-9,0.1074
1.081E-9,0.1074
1.112E-9,0.1074
1.143E-9,0.1074
1.143E-9,0.1074
1.143E-9,0.1074
1.144E-9,0.1074
1.144E-9,0.1074
1.146E-9,0.1074
1.148E-9,0.1154
1.151E-9,0.1246
1.156E-9,0.1246
1.167E-9,0.1246
1.179E-9,0.1246
1.179E-9,0.1246
1.18E-9,0.1246
1.181E-9,0.1246
1.184E-9,0.1246
1.19E-9,0.1246
1.201E-9,0.1246
1.224E-9,0.1246
1.255E-9,0.1246
1.286E-9,0.1246
1.286E-9,0.1246
1.286E-9,0.1246
1.286E-9,0.1246
1.287E-9,0.1246
1.289E-9,0.1246
1.291E-9,0.1306
1.294E-9,0.1375
1.299E-9,0.1375
1.31E-9,0.1375
1.322E-9,0.1375
1.322E-9,0.1375
1.323E-9,0.1375
1.324E-9,0.1375
1.327E-9,0.1375
1.333E-9,0.1375
1.344E-9,0.1375
1.367E-9,0.1375
1.398E-9,0.1375
1.429E-9,0.1375
1.429E-9,0.1375
1.429E-9,0.1375
1.429E-9,0.1375
1.43E-9,0.1375
1.431E-9,0.1375
1.434E-9,0.1455
1.436E-9,0.1547
1.442E-9,0.1547
1.452E-9,0.1547
1.465E-9,0.1547
1.465E-9,0.1547
1.466E-9,0.1547
1.467E-9,0.1547
1.47E-9,0.1547
1.476E-9,0.1547
1.487E-9,0.1547
1.51E-9,0.1547
1.541E-9,0.1547
1.571E-9,0.1547
1.572E-9,0.1547
1.572E-9,0.1547
1.572E-9,0.1547
1.573E-9,0.1547
1.574E-9,0.1547
1.577E-9,0.1627
1.579E-9,0.1719
1.585E-9,0.1719
1.595E-9,0.1719
1.608E-9,0.1719
1.608E-9,0.1719
1.609E-9,0.1719
1.61E-9,0.1719
1.613E-9,0.1719
1.619E-9,0.1719
1.630E-9,0.1719
1.653E-9,0.1719
1.684E-9,0.1719
1.714E-9,0.1719
1.714E-9,0.1719
1.715E-9,0.1719
1.715E-9,0.1719
1.716E-9,0.1719
1.717E-9,0.1719
1.719E-9,0.1779
1.722E-9,0.1848
1.727E-9,0.1848
1.738E-9,0.1848
1.75E-9,0.1848
1.751E-9,0.1848
1.751E-9,0.1848
1.753E-9,0.1848
1.756E-9,0.1848
1.761E-9,0.1848
1.773E-9,0.1848
1.796E-9,0.1848
1.826E-9,0.1848
1.857E-9,0.1848
1.857E-9,0.1848
1.857E-9,0.1848
1.858E-9,0.1848
1.859E-9,0.1848
1.86E-9,0.1848
1.862E-9,0.1927
1.865E-9,0.2020
1.87E-9,0.2020
1.881E-9,0.2020
1.893E-9,0.2020
1.894E-9,0.2020
1.894E-9,0.2020
1.896E-9,0.2020
1.899E-9,0.2020
1.904E-9,0.2020
1.916E-9,0.2020
1.939E-9,0.2020
1.969E-9,0.2020
2.0E-9,0.2020
2.0E-9,0.2020
2.0E-9,0.2020
2.001E-9,0.2020
2.001E-9,0.2020
2.003E-9,0.2020
2.005E-9,0.2099
2.008E-9,0.2191
2.013E-9,0.2191
2.024E-9,0.2191
2.036E-9,0.2191
2.036E-9,0.2191
2.037E-9,0.2191
2.039E-9,0.2191
2.041E-9,0.2191
2.047E-9,0.2191
2.059E-9,0.2191
2.081E-9,0.2191
2.112E-9,0.2191
2.143E-9,0.2191
2.143E-9,0.2191
2.143E-9,0.2191
2.144E-9,0.2191
2.144E-9,0.2191
2.146E-9,0.2191
2.148E-9,0.2251
2.151E-9,0.2320
2.156E-9,0.2320
2.167E-9,0.2320
2.179E-9,0.2320
2.179E-9,0.2320
2.18E-9,0.2320
2.181E-9,0.2320
2.184E-9,0.2320
2.19E-9,0.2320
2.201E-9,0.2320
2.224E-9,0.2320
2.255E-9,0.2320
2.286E-9,0.2320
2.286E-9,0.2320
2.286E-9,0.2320
2.286E-9,0.2320
2.287E-9,0.2320
2.289E-9,0.2320
2.291E-9,0.2400
2.294E-9,0.2492
2.299E-9,0.2492
2.31E-9,0.2492
2.322E-9,0.2492
2.322E-9,0.2492
2.323E-9,0.2492
2.324E-9,0.2492
2.327E-9,0.2492
2.333E-9,0.2492
2.344E-9,0.2492
2.367E-9,0.2492
2.398E-9,0.2492
2.429E-9,0.2492
2.429E-9,0.2492
2.429E-9,0.2492
2.429E-9,0.2492
2.43E-9,0.2492
2.431E-9,0.2492
2.434E-9,0.2572
2.436E-9,0.2664
2.442E-9,0.2664
2.452E-9,0.2664
2.465E-9,0.2664
2.465E-9,0.2664
2.466E-9,0.2664
2.467E-9,0.2664
2.47E-9,0.2664
2.476E-9,0.2664
2.487E-9,0.2664
2.510E-9,0.2664
2.541E-9,0.2664
2.571E-9,0.2664
2.572E-9,0.2664
2.572E-9,0.2664
2.572E-9,0.2664
2.573E-9,0.2664
2.574E-9,0.2664
2.577E-9,0.2724
2.579E-9,0.2793
2.585E-9,0.2793
2.595E-9,0.2793
2.608E-9,0.2793
2.608E-9,0.2793
2.609E-9,0.2793
2.61E-9,0.2793
2.613E-9,0.2793
2.619E-9,0.2793
2.63E-9,0.2793
2.653E-9,0.2793
2.684E-9,0.2793
2.714E-9,0.2793
2.714E-9,0.2793
2.715E-9,0.2793
2.715E-9,0.2793
2.716E-9,0.2793
2.717E-9,0.2793
2.719E-9,0.2873
2.722E-9,0.2965
2.727E-9,0.2965
2.738E-9,0.2965
2.75E-9,0.2965
2.751E-9,0.2965
2.751E-9,0.2965
2.753E-9,0.2965
2.756E-9,0.2965
2.761E-9,0.2965
2.773E-9,0.2965
2.796E-9,0.2965
2.826E-9,0.2965
2.857E-9,0.2965
2.857E-9,0.2965
2.858E-9,0.2965
2.858E-9,0.2965
2.859E-9,0.2965
2.86E-9,0.2965
2.862E-9,0.3045
2.865E-9,0.3137
2.87E-9,0.3137
2.881E-9,0.3137
2.893E-9,0.3137
2.894E-9,0.3137
2.894E-9,0.3137
2.896E-9,0.3137
2.899E-9,0.3137
2.904E-9,0.3137
2.916E-9,0.3137
2.939E-9,0.3137
2.969E-9,0.3137
3.0E-9,0.3137
3.0E-9,0.3137
3.0E-9,0.3137
3.001E-9,0.3137
3.001E-9,0.3137
3.003E-9,0.3137
3.005E-9,0.3197
3.008E-9,0.3266
3.013E-9,0.3266
3.024E-9,0.3266
3.036E-9,0.3266
3.036E-9,0.3266
3.037E-9,0.3266
3.039E-9,0.3266
3.041E-9,0.3266
3.047E-9,0.3266
3.059E-9,0.3266
3.081E-9,0.3266
3.112E-9,0.3266
3.143E-9,0.3266
3.143E-9,0.3266
3.143E-9,0.3266
3.144E-9,0.3266
3.144E-9,0.3266
3.146E-9,0.3266
3.148E-9,0.3345
3.151E-9,0.3438
3.156E-9,0.3438
3.167E-9,0.3438
3.179E-9,0.3438
3.179E-9,0.3438
3.18E-9,0.3438
3.181E-9,0.3438
3.184E-9,0.3438
3.19E-9,0.3438
3.201E-9,0.3438
3.224E-9,0.3438
3.255E-9,0.3438
3.286E-9,0.3438
3.286E-9,0.3438
3.286E-9,0.3438
3.286E-9,0.3438
3.287E-9,0.3438
3.289E-9,0.3438
3.291E-9,0.3517
3.294E-9,0.3609
3.299E-9,0.3609
3.31E-9,0.3609
3.322E-9,0.3609
3.322E-9,0.3609
3.323E-9,0.3609
3.324E-9,0.3609
3.327E-9,0.3609
3.333E-9,0.3609
3.344E-9,0.3609
3.367E-9,0.3609
3.398E-9,0.3609
3.429E-9,0.3609
3.429E-9,0.3609
3.429E-9,0.3609
3.429E-9,0.3609
3.43E-9,0.3609
3.431E-9,0.3609
3.434E-9,0.3669
3.436E-9,0.3738
3.442E-9,0.3738
3.452E-9,0.3738
3.465E-9,0.3738
3.465E-9,0.3738
3.466E-9,0.3738
3.467E-9,0.3738
3.47E-9,0.3738
3.476E-9,0.3738
3.487E-9,0.3738
3.510E-9,0.3738
3.541E-9,0.3738
3.571E-9,0.3738
3.572E-9,0.3738
3.572E-9,0.3738
3.572E-9,0.3738
3.573E-9,0.3738
3.574E-9,0.3738
3.577E-9,0.3818
3.579E-9,0.3910
3.585E-9,0.3910
3.595E-9,0.3910
3.608E-9,0.3910
3.608E-9,0.3910
3.609E-9,0.3910
3.61E-9,0.3910
3.613E-9,0.3910
3.619E-9,0.3910
3.63E-9,0.3910
3.653E-9,0.3910
3.684E-9,0.3910
3.714E-9,0.3910
3.714E-9,0.3910
3.715E-9,0.3910
3.715E-9,0.3910
3.716E-9,0.3910
3.717E-9,0.3910
3.719E-9,0.3990
3.722E-9,0.4082
3.727E-9,0.4082
3.738E-9,0.4082
3.75E-9,0.4082
3.751E-9,0.4082
3.751E-9,0.4082
3.753E-9,0.4082
3.756E-9,0.4082
3.761E-9,0.4082
3.773E-9,0.4082
3.796E-9,0.4082
3.826E-9,0.4082
3.857E-9,0.4082
3.857E-9,0.4082
3.858E-9,0.4082
3.858E-9,0.4082
3.859E-9,0.4082
3.86E-9,0.4082
3.862E-9,0.4142
3.865E-9,0.4211
3.87E-9,0.4211
3.881E-9,0.4211
3.893E-9,0.4211
3.894E-9,0.4211
3.894E-9,0.4211
3.896E-9,0.4211
3.899E-9,0.4211
3.904E-9,0.4211
3.916E-9,0.4211
3.939E-9,0.4211
3.969E-9,0.4211
4.0E-9,0.4211
4.0E-9,0.4211
4.0E-9,0.4211
4.001E-9,0.4211
4.001E-9,0.4211
4.003E-9,0.4211
4.005E-9,0.4291
4.008E-9,0.4383
4.013E-9,0.4383
4.024E-9,0.4383
4.036E-9,0.4383
4.036E-9,0.4383
4.037E-9,0.4383
4.039E-9,0.4383
4.041E-9,0.4383
4.047E-9,0.4383
4.059E-9,0.4383
4.081E-9,0.4383
4.112E-9,0.4383
4.143E-9,0.4383
4.143E-9,0.4383
4.143E-9,0.4383
4.144E-9,0.4383
4.144E-9,0.4383
4.146E-9,0.4383
4.148E-9,0.4463
4.151E-9,0.4555
4.156E-9,0.4555
4.167E-9,0.4555
4.179E-9,0.4555
4.179E-9,0.4555
4.18E-9,0.4555
4.181E-9,0.4555
4.184E-9,0.4555
4.19E-9,0.4555
4.201E-9,0.4555
4.224E-9,0.4555
4.255E-9,0.4555
4.286E-9,0.4555
4.286E-9,0.4555
4.286E-9,0.4555
4.286E-9,0.4555
4.287E-9,0.4555
4.289E-9,0.4555
4.291E-9,0.4615
4.294E-9,0.4684
4.299E-9,0.4684
4.310E-9,0.4684
4.322E-9,0.4684
4.322E-9,0.4684
4.323E-9,0.4684
4.324E-9,0.4684
4.327E-9,0.4684
4.333E-9,0.4684
4.344E-9,0.4684
4.367E-9,0.4684
4.398E-9,0.4684
4.429E-9,0.4684
4.429E-9,0.4684
4.429E-9,0.4684
4.429E-9,0.4684
4.43E-9,0.4684
4.431E-9,0.4684
4.434E-9,0.4763
4.436E-9,0.4855
4.442E-9,0.4855
4.452E-9,0.4855
4.465E-9,0.4855
4.465E-9,0.4855
4.466E-9,0.4855
4.467E-9,0.4855
4.47E-9,0.4855
4.476E-9,0.4855
4.487E-9,0.4855
4.51E-9,0.4855
4.541E-9,0.4855
4.571E-9,0.4855
4.572E-9,0.4855
4.572E-9,0.4855
4.572E-9,0.4855
4.573E-9,0.4855
4.574E-9,0.4855
4.577E-9,0.4935
4.579E-9,0.5027
4.585E-9,0.5027
4.595E-9,0.5027
4.608E-9,0.5027
4.608E-9,0.5027
4.609E-9,0.5027
4.61E-9,0.5027
4.613E-9,0.5027
4.619E-9,0.5027
4.63E-9,0.5027
4.653E-9,0.5027
4.684E-9,0.5027
4.714E-9,0.5027
4.714E-9,0.5027
4.715E-9,0.5027
4.715E-9,0.5027
4.716E-9,0.5027
4.717E-9,0.5027
4.719E-9,0.5087
4.722E-9,0.5156
4.727E-9,0.5156
4.738E-9,0.5156
4.75E-9,0.5156
4.751E-9,0.5156
4.751E-9,0.5156
4.753E-9,0.5156
4.756E-9,0.5156
4.761E-9,0.5156
4.773E-9,0.5156
4.796E-9,0.5156
4.826E-9,0.5156
4.857E-9,0.5156
4.857E-9,0.5156
4.858E-9,0.5156
4.858E-9,0.5156
4.859E-9,0.5156
4.86E-9,0.5156
4.862E-9,0.5236
4.865E-9,0.5328
4.87E-9,0.5328
4.881E-9,0.5328
4.893E-9,0.5328
4.894E-9,0.5328
4.894E-9,0.5328
4.896E-9,0.5328
4.899E-9,0.5328
4.904E-9,0.5328
4.916E-9,0.5328
4.939E-9,0.5328
4.969E-9,0.5328
5.0E-9,0.5328
5.0E-9,0.5328
5.0E-9,0.5328
5.001E-9,0.5328
5.001E-9,0.5328
5.003E-9,0.5328
5.005E-9,0.5408
5.008E-9,0.5500
5.013E-9,0.5500
5.024E-9,0.5500
5.036E-9,0.5500
5.036E-9,0.5500
5.037E-9,0.5500
5.039E-9,0.5500
5.041E-9,0.5500
5.047E-9,0.5500
5.059E-9,0.5500
5.081E-9,0.5500
5.112E-9,0.5500
5.143E-9,0.5500
5.143E-9,0.5500
5.143E-9,0.5500
5.144E-9,0.5500
5.144E-9,0.5500
5.146E-9,0.5500
5.148E-9,0.5560
5.151E-9,0.5629
5.156E-9,0.5629
5.167E-9,0.5629
5.179E-9,0.5629
5.179E-9,0.5629
5.18E-9,0.5629
5.181E-9,0.5629
5.184E-9,0.5629
5.19E-9,0.5629
5.201E-9,0.5629
5.224E-9,0.5629
5.255E-9,0.5629
5.286E-9,0.5629
5.286E-9,0.5629
5.286E-9,0.5629
5.286E-9,0.5629
5.287E-9,0.5629
5.289E-9,0.5629
5.291E-9,0.5709
5.294E-9,0.5801
5.299E-9,0.5801
5.310E-9,0.5801
5.322E-9,0.5801
5.322E-9,0.5801
5.323E-9,0.5801
5.324E-9,0.5801
5.327E-9,0.5801
5.333E-9,0.5801
5.344E-9,0.5801
5.367E-9,0.5801
5.398E-9,0.5801
5.429E-9,0.5801
5.429E-9,0.5801
5.429E-9,0.5801
5.429E-9,0.5801
5.43E-9,0.5801
5.431E-9,0.5801
5.434E-9,0.5861
5.436E-9,0.5930
5.442E-9,0.5930
5.452E-9,0.5930
5.465E-9,0.5930
5.465E-9,0.5930
5.466E-9,0.5930
5.467E-9,0.5930
5.47E-9,0.5930
5.476E-9,0.5930
5.487E-9,0.5930
5.51E-9,0.5930
5.541E-9,0.5930
5.571E-9,0.5930
5.572E-9,0.5930
5.572E-9,0.5930
5.572E-9,0.5930
5.573E-9,0.5930
5.574E-9,0.5930
5.577E-9,0.6009
5.579E-9,0.6102
5.585E-9,0.6102
5.595E-9,0.6102
5.608E-9,0.6102
5.608E-9,0.6102
5.609E-9,0.6102
5.61E-9,0.6102
5.613E-9,0.6102
5.619E-9,0.6102
5.63E-9,0.6102
5.653E-9,0.6102
5.684E-9,0.6102
5.714E-9,0.6102
5.714E-9,0.6102
5.715E-9,0.6102
5.715E-9,0.6102
5.716E-9,0.6102
5.717E-9,0.6102
5.719E-9,0.6181
5.722E-9,0.6273
5.727E-9,0.6273
5.738E-9,0.6273
5.75E-9,0.6273
5.751E-9,0.6273
5.751E-9,0.6273
5.753E-9,0.6273
5.756E-9,0.6273
5.761E-9,0.6273
5.773E-9,0.6273
5.796E-9,0.6273
5.826E-9,0.6273
5.857E-9,0.6273
5.857E-9,0.6273
5.858E-9,0.6273
5.858E-9,0.6273
5.859E-9,0.6273
5.86E-9,0.6273
5.862E-9,0.6333
5.865E-9,0.6402
5.87E-9,0.6402
5.881E-9,0.6402
5.893E-9,0.6402
5.894E-9,0.6402
5.894E-9,0.6402
5.896E-9,0.6402
5.899E-9,0.6402
5.904E-9,0.6402
5.916E-9,0.6402
5.939E-9,0.6402
5.969E-9,0.6402
6.0E-9,0.6402
6.0E-9,0.6402
6.0E-9,0.6402
6.001E-9,0.6402
6.001E-9,0.6402
6.003E-9,0.6402
6.005E-9,0.6482
6.008E-9,0.6574
6.013E-9,0.6574
6.024E-9,0.6574
6.036E-9,0.6574
6.036E-9,0.6574
6.037E-9,0.6574
6.039E-9,0.6574
6.041E-9,0.6574
6.047E-9,0.6574
6.059E-9,0.6574
6.081E-9,0.6574
6.112E-9,0.6574
6.143E-9,0.6574
6.143E-9,0.6574
6.143E-9,0.6574
6.144E-9,0.6574
6.144E-9,0.6574
6.146E-9,0.6574
6.148E-9,0.6654
6.151E-9,0.6746
6.156E-9,0.6746
6.167E-9,0.6746
6.179E-9,0.6746
6.179E-9,0.6746
6.18E-9,0.6746
6.181E-9,0.6746
6.184E-9,0.6746
6.19E-9,0.6746
6.201E-9,0.6746
6.224E-9,0.6746
6.255E-9,0.6746
6.286E-9,0.6746
6.286E-9,0.6746
6.286E-9,0.6746
6.286E-9,0.6746
6.287E-9,0.6746
6.289E-9,0.6746
6.291E-9,0.6806
6.294E-9,0.6875
6.299E-9,0.6875
6.310E-9,0.6875
6.322E-9,0.6875
6.322E-9,0.6875
6.323E-9,0.6875
6.324E-9,0.6875
6.327E-9,0.6875
6.333E-9,0.6875
6.344E-9,0.6875
6.367E-9,0.6875
6.398E-9,0.6875
6.429E-9,0.6875
6.429E-9,0.6875
6.429E-9,0.6875
6.429E-9,0.6875
6.43E-9,0.6875
6.431E-9,0.6875
6.434E-9,0.6955
6.436E-9,0.7047
6.442E-9,0.7047
6.452E-9,0.7047
6.465E-9,0.7047
6.465E-9,0.7047
6.466E-9,0.7047
6.467E-9,0.7047
6.47E-9,0.7047
6.476E-9,0.7047
6.487E-9,0.7047
6.51E-9,0.7047
6.541E-9,0.7047
6.571E-9,0.7047
6.572E-9,0.7047
6.572E-9,0.7047
6.572E-9,0.7047
6.573E-9,0.7047
6.574E-9,0.7047
6.577E-9,0.7127
6.579E-9,0.7219
6.585E-9,0.7219
6.595E-9,0.7219
6.608E-9,0.7219
6.608E-9,0.7219
6.609E-9,0.7219
6.61E-9,0.7219
6.613E-9,0.7219
6.619E-9,0.7219
6.63E-9,0.7219
6.653E-9,0.7219
6.684E-9,0.7219
6.714E-9,0.7219
6.714E-9,0.7219
6.715E-9,0.7219
6.715E-9,0.7219
6.716E-9,0.7219
6.717E-9,0.7219
6.719E-9,0.7279
6.722E-9,0.7348
6.727E-9,0.7348
6.738E-9,0.7348
6.75E-9,0.7348
6.751E-9,0.7348
6.751E-9,0.7348
6.753E-9,0.7348
6.756E-9,0.7348
6.761E-9,0.7348
6.773E-9,0.7348
6.796E-9,0.7348
6.826E-9,0.7348
6.857E-9,0.7348
6.857E-9,0.7348
6.858E-9,0.7348
6.858E-9,0.7348
6.859E-9,0.7348
6.86E-9,0.7348
6.862E-9,0.7427
6.865E-9,0.7520
6.87E-9,0.7520
6.881E-9,0.7520
6.893E-9,0.7520
6.894E-9,0.7520
6.894E-9,0.7520
6.896E-9,0.7520
6.899E-9,0.7520
6.904E-9,0.7520
6.916E-9,0.7520
6.939E-9,0.7520
6.969E-9,0.7520
7.0E-9,0.7520
7.0E-9,0.7520
7.0E-9,0.7520
7.001E-9,0.7520
7.001E-9,0.7520
7.003E-9,0.7520
7.005E-9,0.7599
7.008E-9,0.7691
7.013E-9,0.7691
7.024E-9,0.7691
7.036E-9,0.7691
7.036E-9,0.7691
7.037E-9,0.7691
7.039E-9,0.7691
7.041E-9,0.7691
7.047E-9,0.7691
7.059E-9,0.7691
7.081E-9,0.7691
7.112E-9,0.7691
7.143E-9,0.7691
7.143E-9,0.7691
7.143E-9,0.7691
7.144E-9,0.7691
7.144E-9,0.7691
7.146E-9,0.7691
7.148E-9,0.7751
7.151E-9,0.7820
7.156E-9,0.7820
7.167E-9,0.7820
7.179E-9,0.7820
7.179E-9,0.7820
7.18E-9,0.7820
7.181E-9,0.7820
7.184E-9,0.7820
7.19E-9,0.7820
7.201E-9,0.7820
7.224E-9,0.7820
7.255E-9,0.7820
7.286E-9,0.7820
7.286E-9,0.7820
7.286E-9,0.7820
7.286E-9,0.7820
7.287E-9,0.7820
7.289E-9,0.7820
7.291E-9,0.7900
7.294E-9,0.7992
7.299E-9,0.7992
7.310E-9,0.7992
7.322E-9,0.7992
7.322E-9,0.7992
7.323E-9,0.7992
7.324E-9,0.7992
7.327E-9,0.7992
7.333E-9,0.7992
7.344E-9,0.7992
7.367E-9,0.7992
7.398E-9,0.7992
7.429E-9,0.7992
7.429E-9,0.7992
7.429E-9,0.7992
7.429E-9,0.7992
7.43E-9,0.7992
7.431E-9,0.7992
7.434E-9,0.8072
7.436E-9,0.8164
7.442E-9,0.8164
7.452E-9,0.8164
7.465E-9,0.8164
7.465E-9,0.8164
7.466E-9,0.8164
7.467E-9,0.8164
7.47E-9,0.8164
7.476E-9,0.8164
7.487E-9,0.8164
7.51E-9,0.8164
7.541E-9,0.8164
7.571E-9,0.8164
7.572E-9,0.8164
7.572E-9,0.8164
7.572E-9,0.8164
7.573E-9,0.8164
7.574E-9,0.8164
7.577E-9,0.8224
7.579E-9,0.8293
7.585E-9,0.8293
7.595E-9,0.8293
7.607E-9,0.8293
7.608E-9,0.8293
7.609E-9,0.8293
7.61E-9,0.8293
7.613E-9,0.8293
7.619E-9,0.8293
7.63E-9,0.8293
7.653E-9,0.8293
7.684E-9,0.8293
7.714E-9,0.8293
7.714E-9,0.8293
7.715E-9,0.8293
7.715E-9,0.8293
7.716E-9,0.8293
7.717E-9,0.8293
7.719E-9,0.8373
7.722E-9,0.8465
7.727E-9,0.8465
7.738E-9,0.8465
7.75E-9,0.8465
7.751E-9,0.8465
7.751E-9,0.8465
7.753E-9,0.8465
7.756E-9,0.8465
7.761E-9,0.8465
7.773E-9,0.8465
7.796E-9,0.8465
7.826E-9,0.8465
7.857E-9,0.8465
7.857E-9,0.8465
7.857E-9,0.8465
7.858E-9,0.8465
7.859E-9,0.8465
7.86E-9,0.8465
7.862E-9,0.8545
7.865E-9,0.8637
7.87E-9,0.8637
7.881E-9,0.8637
7.893E-9,0.8637
7.894E-9,0.8637
7.894E-9,0.8637
7.896E-9,0.8637
7.899E-9,0.8637
7.904E-9,0.8637
7.916E-9,0.8637
7.939E-9,0.8637
7.969E-9,0.8637
8.0E-9,0.8637
8.0E-9,0.8637
8.0E-9,0.8637
8.001E-9,0.8637
8.001E-9,0.8637
8.003E-9,0.8637
8.005E-9,0.8697
8.008E-9,0.8766
8.013E-9,0.8766
8.024E-9,0.8766
8.036E-9,0.8766
8.036E-9,0.8766
8.037E-9,0.8766
8.039E-9,0.8766
8.041E-9,0.8766
8.047E-9,0.8766
8.059E-9,0.8766
8.081E-9,0.8766
8.112E-9,0.8766
8.143E-9,0.8766
8.143E-9,0.8766
8.143E-9,0.8766
8.144E-9,0.8766
8.144E-9,0.8766
8.146E-9,0.8766
8.148E-9,0.8845
8.151E-9,0.8938
8.156E-9,0.8938
8.167E-9,0.8938
8.179E-9,0.8938
8.179E-9,0.8938
8.18E-9,0.8938
8.181E-9,0.8938
8.184E-9,0.8938
8.19E-9,0.8938
8.201E-9,0.8938
8.224E-9,0.8938
8.255E-9,0.8938
8.286E-9,0.8938
8.286E-9,0.8938
8.286E-9,0.8938
8.286E-9,0.8938
8.287E-9,0.8938
8.289E-9,0.8938
8.291E-9,0.9017
8.294E-9,0.9109
8.299E-9,0.9109
8.31E-9,0.9109
8.322E-9,0.9109
8.322E-9,0.9109
8.323E-9,0.9109
8.324E-9,0.9109
8.327E-9,0.9109
8.333E-9,0.9109
8.344E-9,0.9109
8.367E-9,0.9109
8.398E-9,0.9109
8.429E-9,0.9109
8.429E-9,0.9109
8.429E-9,0.9109
8.429E-9,0.9109
8.43E-9,0.9109
8.431E-9,0.9109
8.434E-9,0.9169
8.436E-9,0.9238
8.442E-9,0.9238
8.452E-9,0.9238
8.465E-9,0.9238
8.465E-9,0.9238
8.466E-9,0.9238
8.467E-9,0.9238
8.47E-9,0.9238
8.476E-9,0.9238
8.487E-9,0.9238
8.51E-9,0.9238
8.541E-9,0.9238
8.571E-9,0.9238
8.572E-9,0.9238
8.572E-9,0.9238
8.572E-9,0.9238
8.573E-9,0.9238
8.574E-9,0.9238
8.577E-9,0.9318
8.579E-9,0.9410
8.585E-9,0.9410
8.595E-9,0.9410
8.607E-9,0.9410
8.608E-9,0.9410
8.609E-9,0.9410
8.61E-9,0.9410
8.613E-9,0.9410
8.619E-9,0.9410
8.63E-9,0.9410
8.653E-9,0.9410
8.684E-9,0.9410
8.714E-9,0.9410
8.714E-9,0.9410
8.715E-9,0.9410
8.715E-9,0.9410
8.716E-9,0.9410
8.717E-9,0.9410
8.719E-9,0.9490
8.722E-9,0.9582
8.727E-9,0.9582
8.738E-9,0.9582
8.75E-9,0.9582
8.751E-9,0.9582
8.751E-9,0.9582
8.753E-9,0.9582
8.756E-9,0.9582
8.761E-9,0.9582
8.773E-9,0.9582
8.796E-9,0.9582
8.826E-9,0.9582
8.857E-9,0.9582
8.857E-9,0.9582
8.857E-9,0.9582
8.858E-9,0.9582
8.859E-9,0.9582
8.86E-9,0.9582
8.862E-9,0.9642
8.865E-9,0.9711
8.870E-9,0.9711
8.881E-9,0.9711
8.893E-9,0.9711
8.894E-9,0.9711
8.894E-9,0.9711
8.896E-9,0.9711
8.899E-9,0.9711
8.904E-9,0.9711
8.916E-9,0.9711
8.939E-9,0.9711
8.969E-9,0.9711
9.0E-9,0.9711
9.0E-9,0.9711
9.0E-9,0.9711
9.001E-9,0.9711
9.001E-9,0.9711
9.003E-9,0.9711
9.005E-9,0.9791
9.008E-9,0.9883
9.013E-9,0.9883
9.024E-9,0.9883
9.036E-9,0.9883
9.036E-9,0.9883
9.037E-9,0.9883
9.039E-9,0.9883
9.041E-9,0.9883
9.047E-9,0.9883
9.059E-9,0.9883
9.081E-9,0.9883
9.112E-9,0.9883
9.143E-9,0.9883
9.143E-9,0.9883
9.143E-9,0.9883
9.144E-9,0.9883
9.144E-9,0.9883
9.146E-9,0.9883
9.148E-9,0.9963
9.151E-9,1.005
9.156E-9,1.005
9.167E-9,1.005
9.179E-9,1.005
9.179E-9,1.005
9.18E-9,1.005
9.181E-9,1.005
9.184E-9,1.005
9.19E-9,1.005
9.201E-9,1.005
9.224E-9,1.005
9.255E-9,1.005
9.286E-9,1.005
9.286E-9,1.005
9.286E-9,1.005
9.286E-9,1.005
9.287E-9,1.005
9.289E-9,1.005
9.291E-9,1.011
9.294E-9,1.018
9.299E-9,1.018
9.31E-9,1.018
9.322E-9,1.018
9.322E-9,1.018
9.323E-9,1.018
9.324E-9,1.018
9.327E-9,1.018
9.333E-9,1.018
9.344E-9,1.018
9.367E-9,1.018
9.398E-9,1.018
9.429E-9,1.018
9.429E-9,1.018
9.429E-9,1.018
9.429E-9,1.018
9.43E-9,1.018
9.431E-9,1.018
9.434E-9,1.026
9.436E-9,1.036
9.442E-9,1.036
9.452E-9,1.036
9.465E-9,1.036
9.465E-9,1.036
9.466E-9,1.036
9.467E-9,1.036
9.47E-9,1.036
9.476E-9,1.036
9.487E-9,1.036
9.51E-9,1.036
9.541E-9,1.036
9.571E-9,1.036
9.572E-9,1.036
9.572E-9,1.036
9.572E-9,1.036
9.573E-9,1.036
9.574E-9,1.036
9.577E-9,1.044
9.579E-9,1.053
9.585E-9,1.053
9.595E-9,1.053
9.607E-9,1.053
9.608E-9,1.053
9.609E-9,1.053
9.61E-9,1.053
9.613E-9,1.053
9.619E-9,1.053
9.63E-9,1.053
9.653E-9,1.053
9.684E-9,1.053
9.714E-9,1.053
9.714E-9,1.053
9.715E-9,1.053
9.715E-9,1.053
9.716E-9,1.053
9.717E-9,1.053
9.719E-9,1.059
9.722E-9,1.066
9.727E-9,1.066
9.738E-9,1.066
9.75E-9,1.066
9.751E-9,1.066
9.751E-9,1.066
9.753E-9,1.066
9.756E-9,1.066
9.761E-9,1.066
9.773E-9,1.066
9.796E-9,1.066
9.826E-9,1.066
9.857E-9,1.066
9.857E-9,1.066
9.858E-9,1.066
9.858E-9,1.066
9.859E-9,1.066
9.86E-9,1.066
9.862E-9,1.074
9.865E-9,1.083
9.870E-9,1.083
9.881E-9,1.083
9.893E-9,1.083
9.894E-9,1.083
9.894E-9,1.083
9.896E-9,1.083
9.899E-9,1.083
9.904E-9,1.083
9.916E-9,1.083
9.939E-9,1.083
9.969E-9,1.083
1.0E-8,1.083
